/////////////////////////////////////////////////////////////////////////////////
/// Profile Data Ascii Dump (XRD)                                             ///
/////////////////////////////////////////////////////////////////////////////////

  Group     : Standard
  Data      : Bianca
  File Name : Bianca.RAW

# Profile Datafile
          comment             =  
          date & time         = 04-11-19 10:14:46 

# Measurement Condition
    X-ray tube
          target              = Cu 
          voltage             = 40.0 (kV)
          current             = 20.0 (mA)
    Slits
          divergence slit     = 1.00000 (deg) 
          scatter slit        = 1.00000 (deg) 
          receiving slit      = 0.30000 (mm)  
    Scanning
          drive axis          = Theta-2Theta 
          scan range          =    5.000 -   95.000 
          scan mode           = Continuous Scan 
          scan speed          =   2.0000 (deg/min) 
          sampling pitch      =   0.0200 (deg) 
          preset time         =   0.60 (sec) 

# Data      [ Total No. = 4501 ]
  <2Theta>   <   I   >
     5.0000        96
     5.0200        86
     5.0400        98
     5.0600       102
     5.0800        98
     5.1000        96
     5.1200        72
     5.1400        98
     5.1600       106
     5.1800        80
     5.2000        86
     5.2200       104
     5.2400        98
     5.2600        90
     5.2800        74
     5.3000        86
     5.3200        98
     5.3400        82
     5.3600        96
     5.3800       118
     5.4000        94
     5.4200        78
     5.4400        82
     5.4600        84
     5.4800        84
     5.5000        88
     5.5200        82
     5.5400        86
     5.5600        92
     5.5800       108
     5.6000        82
     5.6200        84
     5.6400        88
     5.6600        92
     5.6800        82
     5.7000        88
     5.7200        82
     5.7400        82
     5.7600        80
     5.7800        80
     5.8000        86
     5.8200        96
     5.8400        88
     5.8600        76
     5.8800        86
     5.9000        88
     5.9200        88
     5.9400        72
     5.9600        92
     5.9800        80
     6.0000        96
     6.0200        76
     6.0400        78
     6.0600        74
     6.0800        78
     6.1000        78
     6.1200        72
     6.1400       116
     6.1600        84
     6.1800       112
     6.2000        96
     6.2200        80
     6.2400        88
     6.2600       110
     6.2800        78
     6.3000        94
     6.3200        94
     6.3400        72
     6.3600        76
     6.3800        88
     6.4000        84
     6.4200        92
     6.4400        86
     6.4600        74
     6.4800        74
     6.5000        80
     6.5200        70
     6.5400        80
     6.5600        78
     6.5800        80
     6.6000        78
     6.6200        76
     6.6400        80
     6.6600        92
     6.6800        94
     6.7000        96
     6.7200        94
     6.7400        86
     6.7600        72
     6.7800        64
     6.8000        76
     6.8200        84
     6.8400        94
     6.8600        76
     6.8800        66
     6.9000        82
     6.9200        98
     6.9400        72
     6.9600        84
     6.9800        96
     7.0000        82
     7.0200        64
     7.0400        86
     7.0600        94
     7.0800        76
     7.1000        98
     7.1200        82
     7.1400        80
     7.1600        92
     7.1800        68
     7.2000        94
     7.2200        80
     7.2400        76
     7.2600        76
     7.2800        96
     7.3000        80
     7.3200        86
     7.3400        88
     7.3600        92
     7.3800        76
     7.4000        80
     7.4200        82
     7.4400        72
     7.4600        88
     7.4800        70
     7.5000        84
     7.5200        92
     7.5400        82
     7.5600        86
     7.5800        94
     7.6000        66
     7.6200        90
     7.6400        74
     7.6600        72
     7.6800        78
     7.7000        90
     7.7200        76
     7.7400        84
     7.7600        78
     7.7800        76
     7.8000        80
     7.8200        86
     7.8400        90
     7.8600        76
     7.8800        94
     7.9000        82
     7.9200        72
     7.9400        88
     7.9600        74
     7.9800        66
     8.0000        82
     8.0200        80
     8.0400        84
     8.0600        94
     8.0800        90
     8.1000        88
     8.1200        70
     8.1400        76
     8.1600        92
     8.1800       100
     8.2000        78
     8.2200        88
     8.2400        70
     8.2600        88
     8.2800        84
     8.3000        88
     8.3200       100
     8.3400        94
     8.3600        64
     8.3800        80
     8.4000        86
     8.4200        86
     8.4400        76
     8.4600        96
     8.4800        86
     8.5000        70
     8.5200       112
     8.5400        90
     8.5600        82
     8.5800        80
     8.6000        96
     8.6200        88
     8.6400        88
     8.6600        84
     8.6800        98
     8.7000        76
     8.7200        84
     8.7400        74
     8.7600        98
     8.7800       100
     8.8000        88
     8.8200        96
     8.8400        90
     8.8600        92
     8.8800        82
     8.9000        88
     8.9200       106
     8.9400        90
     8.9600       102
     8.9800        92
     9.0000        88
     9.0200        82
     9.0400        98
     9.0600        82
     9.0800        82
     9.1000        86
     9.1200        84
     9.1400       100
     9.1600        88
     9.1800        98
     9.2000        78
     9.2200        70
     9.2400       108
     9.2600        84
     9.2800       104
     9.3000        84
     9.3200        96
     9.3400       110
     9.3600        88
     9.3800        90
     9.4000        90
     9.4200        78
     9.4400        64
     9.4600        70
     9.4800        78
     9.5000        96
     9.5200       112
     9.5400        80
     9.5600        86
     9.5800        94
     9.6000        76
     9.6200        92
     9.6400       100
     9.6600       100
     9.6800        88
     9.7000        78
     9.7200        94
     9.7400       104
     9.7600        82
     9.7800        96
     9.8000        98
     9.8200        94
     9.8400        86
     9.8600        90
     9.8800        96
     9.9000       118
     9.9200       110
     9.9400        82
     9.9600       110
     9.9800        94
    10.0000        90
    10.0200        92
    10.0400        90
    10.0600        96
    10.0800       102
    10.1000        88
    10.1200        96
    10.1400        96
    10.1600       106
    10.1800        86
    10.2000       100
    10.2200        94
    10.2400       100
    10.2600       112
    10.2800       100
    10.3000       100
    10.3200        98
    10.3400        96
    10.3600        92
    10.3800       114
    10.4000        90
    10.4200        98
    10.4400        88
    10.4600        76
    10.4800       100
    10.5000       104
    10.5200       106
    10.5400       104
    10.5600       112
    10.5800        88
    10.6000       104
    10.6200        78
    10.6400       106
    10.6600       102
    10.6800       102
    10.7000       104
    10.7200       120
    10.7400       104
    10.7600       108
    10.7800        96
    10.8000       114
    10.8200       118
    10.8400       128
    10.8600       102
    10.8800       108
    10.9000        94
    10.9200       102
    10.9400       102
    10.9600       126
    10.9800       114
    11.0000       102
    11.0200        98
    11.0400       102
    11.0600       110
    11.0800       104
    11.1000       116
    11.1200       104
    11.1400       138
    11.1600       110
    11.1800        98
    11.2000       110
    11.2200       116
    11.2400       110
    11.2600       124
    11.2800       118
    11.3000       104
    11.3200       118
    11.3400       114
    11.3600       118
    11.3800       110
    11.4000       114
    11.4200       116
    11.4400       112
    11.4600       120
    11.4800       126
    11.5000       112
    11.5200       118
    11.5400       132
    11.5600       106
    11.5800       112
    11.6000       118
    11.6200       106
    11.6400       120
    11.6600       124
    11.6800       116
    11.7000       132
    11.7200       120
    11.7400       124
    11.7600       124
    11.7800       108
    11.8000       126
    11.8200       120
    11.8400       112
    11.8600       116
    11.8800       120
    11.9000       118
    11.9200       138
    11.9400       136
    11.9600       130
    11.9800       108
    12.0000       134
    12.0200       108
    12.0400       142
    12.0600       134
    12.0800       116
    12.1000       130
    12.1200       134
    12.1400       138
    12.1600       120
    12.1800       134
    12.2000       128
    12.2200       126
    12.2400       130
    12.2600       124
    12.2800       122
    12.3000       148
    12.3200       152
    12.3400       132
    12.3600       130
    12.3800       124
    12.4000       138
    12.4200       130
    12.4400       142
    12.4600       162
    12.4800       144
    12.5000       140
    12.5200       166
    12.5400       140
    12.5600       162
    12.5800       138
    12.6000       146
    12.6200       170
    12.6400       152
    12.6600       180
    12.6800       154
    12.7000       168
    12.7200       150
    12.7400       158
    12.7600       150
    12.7800       166
    12.8000       154
    12.8200       154
    12.8400       174
    12.8600       176
    12.8800       180
    12.9000       186
    12.9200       190
    12.9400       158
    12.9600       210
    12.9800       180
    13.0000       160
    13.0200       174
    13.0400       182
    13.0600       190
    13.0800       174
    13.1000       204
    13.1200       186
    13.1400       204
    13.1600       188
    13.1800       192
    13.2000       232
    13.2200       218
    13.2400       218
    13.2600       246
    13.2800       214
    13.3000       242
    13.3200       196
    13.3400       186
    13.3600       240
    13.3800       238
    13.4000       228
    13.4200       242
    13.4400       218
    13.4600       248
    13.4800       238
    13.5000       230
    13.5200       274
    13.5400       256
    13.5600       244
    13.5800       260
    13.6000       278
    13.6200       258
    13.6400       270
    13.6600       270
    13.6800       302
    13.7000       288
    13.7200       286
    13.7400       298
    13.7600       288
    13.7800       298
    13.8000       292
    13.8200       318
    13.8400       280
    13.8600       340
    13.8800       334
    13.9000       330
    13.9200       312
    13.9400       316
    13.9600       328
    13.9800       342
    14.0000       332
    14.0200       288
    14.0400       360
    14.0600       346
    14.0800       356
    14.1000       358
    14.1200       328
    14.1400       386
    14.1600       368
    14.1800       354
    14.2000       378
    14.2200       360
    14.2400       372
    14.2600       394
    14.2800       378
    14.3000       410
    14.3200       370
    14.3400       356
    14.3600       392
    14.3800       366
    14.4000       412
    14.4200       404
    14.4400       388
    14.4600       372
    14.4800       352
    14.5000       388
    14.5200       414
    14.5400       410
    14.5600       380
    14.5800       402
    14.6000       370
    14.6200       416
    14.6400       424
    14.6600       420
    14.6800       392
    14.7000       422
    14.7200       376
    14.7400       378
    14.7600       444
    14.7800       410
    14.8000       396
    14.8200       358
    14.8400       408
    14.8600       420
    14.8800       418
    14.9000       422
    14.9200       402
    14.9400       396
    14.9600       406
    14.9800       404
    15.0000       394
    15.0200       372
    15.0400       436
    15.0600       400
    15.0800       402
    15.1000       410
    15.1200       440
    15.1400       370
    15.1600       370
    15.1800       406
    15.2000       414
    15.2200       428
    15.2400       398
    15.2600       364
    15.2800       386
    15.3000       384
    15.3200       450
    15.3400       406
    15.3600       410
    15.3800       388
    15.4000       390
    15.4200       384
    15.4400       400
    15.4600       374
    15.4800       376
    15.5000       426
    15.5200       372
    15.5400       432
    15.5600       392
    15.5800       372
    15.6000       434
    15.6200       384
    15.6400       424
    15.6600       414
    15.6800       426
    15.7000       390
    15.7200       412
    15.7400       392
    15.7600       436
    15.7800       380
    15.8000       374
    15.8200       394
    15.8400       394
    15.8600       408
    15.8800       412
    15.9000       390
    15.9200       400
    15.9400       388
    15.9600       396
    15.9800       384
    16.0000       422
    16.0200       396
    16.0400       390
    16.0600       392
    16.0800       376
    16.1000       396
    16.1200       384
    16.1400       398
    16.1600       412
    16.1800       416
    16.2000       380
    16.2200       370
    16.2400       422
    16.2600       376
    16.2800       370
    16.3000       374
    16.3200       378
    16.3400       358
    16.3600       400
    16.3800       404
    16.4000       356
    16.4200       366
    16.4400       390
    16.4600       366
    16.4800       368
    16.5000       350
    16.5200       362
    16.5400       370
    16.5600       360
    16.5800       354
    16.6000       352
    16.6200       356
    16.6400       316
    16.6600       358
    16.6800       304
    16.7000       328
    16.7200       306
    16.7400       318
    16.7600       338
    16.7800       338
    16.8000       320
    16.8200       308
    16.8400       318
    16.8600       296
    16.8800       342
    16.9000       308
    16.9200       338
    16.9400       292
    16.9600       308
    16.9800       306
    17.0000       324
    17.0200       266
    17.0400       296
    17.0600       306
    17.0800       264
    17.1000       276
    17.1200       304
    17.1400       268
    17.1600       268
    17.1800       256
    17.2000       290
    17.2200       242
    17.2400       248
    17.2600       276
    17.2800       222
    17.3000       224
    17.3200       262
    17.3400       244
    17.3600       240
    17.3800       240
    17.4000       268
    17.4200       226
    17.4400       226
    17.4600       232
    17.4800       238
    17.5000       248
    17.5200       244
    17.5400       222
    17.5600       246
    17.5800       266
    17.6000       228
    17.6200       222
    17.6400       208
    17.6600       214
    17.6800       250
    17.7000       222
    17.7200       206
    17.7400       208
    17.7600       222
    17.7800       222
    17.8000       240
    17.8200       236
    17.8400       214
    17.8600       202
    17.8800       212
    17.9000       212
    17.9200       202
    17.9400       212
    17.9600       228
    17.9800       206
    18.0000       244
    18.0200       198
    18.0400       216
    18.0600       196
    18.0800       208
    18.1000       214
    18.1200       214
    18.1400       214
    18.1600       236
    18.1800       230
    18.2000       192
    18.2200       204
    18.2400       234
    18.2600       224
    18.2800       228
    18.3000       216
    18.3200       218
    18.3400       206
    18.3600       220
    18.3800       214
    18.4000       212
    18.4200       218
    18.4400       232
    18.4600       246
    18.4800       232
    18.5000       206
    18.5200       252
    18.5400       210
    18.5600       240
    18.5800       208
    18.6000       212
    18.6200       228
    18.6400       210
    18.6600       254
    18.6800       216
    18.7000       242
    18.7200       198
    18.7400       244
    18.7600       230
    18.7800       254
    18.8000       206
    18.8200       238
    18.8400       266
    18.8600       236
    18.8800       248
    18.9000       228
    18.9200       234
    18.9400       222
    18.9600       246
    18.9800       258
    19.0000       252
    19.0200       234
    19.0400       260
    19.0600       242
    19.0800       250
    19.1000       244
    19.1200       236
    19.1400       262
    19.1600       260
    19.1800       222
    19.2000       284
    19.2200       278
    19.2400       258
    19.2600       284
    19.2800       252
    19.3000       268
    19.3200       258
    19.3400       262
    19.3600       286
    19.3800       252
    19.4000       274
    19.4200       292
    19.4400       286
    19.4600       266
    19.4800       302
    19.5000       282
    19.5200       298
    19.5400       282
    19.5600       290
    19.5800       270
    19.6000       268
    19.6200       306
    19.6400       296
    19.6600       322
    19.6800       286
    19.7000       322
    19.7200       310
    19.7400       318
    19.7600       324
    19.7800       346
    19.8000       314
    19.8200       344
    19.8400       356
    19.8600       316
    19.8800       360
    19.9000       362
    19.9200       370
    19.9400       378
    19.9600       390
    19.9800       360
    20.0000       368
    20.0200       374
    20.0400       364
    20.0600       354
    20.0800       382
    20.1000       386
    20.1200       380
    20.1400       354
    20.1600       406
    20.1800       376
    20.2000       376
    20.2200       412
    20.2400       372
    20.2600       374
    20.2800       410
    20.3000       406
    20.3200       390
    20.3400       436
    20.3600       388
    20.3800       372
    20.4000       360
    20.4200       340
    20.4400       420
    20.4600       374
    20.4800       410
    20.5000       440
    20.5200       398
    20.5400       368
    20.5600       414
    20.5800       402
    20.6000       386
    20.6200       384
    20.6400       412
    20.6600       414
    20.6800       402
    20.7000       434
    20.7200       428
    20.7400       444
    20.7600       398
    20.7800       390
    20.8000       430
    20.8200       460
    20.8400       426
    20.8600       446
    20.8800       446
    20.9000       458
    20.9200       486
    20.9400       464
    20.9600       450
    20.9800       462
    21.0000       448
    21.0200       486
    21.0400       488
    21.0600       526
    21.0800       512
    21.1000       492
    21.1200       506
    21.1400       544
    21.1600       550
    21.1800       544
    21.2000       560
    21.2200       548
    21.2400       604
    21.2600       630
    21.2800       610
    21.3000       634
    21.3200       546
    21.3400       630
    21.3600       676
    21.3800       664
    21.4000       686
    21.4200       704
    21.4400       656
    21.4600       684
    21.4800       732
    21.5000       684
    21.5200       752
    21.5400       750
    21.5600       754
    21.5800       796
    21.6000       806
    21.6200       830
    21.6400       802
    21.6600       878
    21.6800       894
    21.7000       864
    21.7200       908
    21.7400       886
    21.7600       888
    21.7800       916
    21.8000       956
    21.8200       922
    21.8400       976
    21.8600       920
    21.8800       968
    21.9000      1010
    21.9200       984
    21.9400      1050
    21.9600       984
    21.9800      1054
    22.0000      1074
    22.0200      1072
    22.0400      1094
    22.0600      1134
    22.0800      1082
    22.1000      1134
    22.1200      1096
    22.1400      1132
    22.1600      1128
    22.1800      1066
    22.2000      1116
    22.2200      1074
    22.2400      1128
    22.2600      1088
    22.2800      1042
    22.3000      1108
    22.3200      1116
    22.3400      1124
    22.3600      1056
    22.3800      1108
    22.4000      1092
    22.4200      1120
    22.4400      1092
    22.4600      1036
    22.4800      1054
    22.5000       990
    22.5200      1048
    22.5400       980
    22.5600      1040
    22.5800       988
    22.6000       958
    22.6200      1006
    22.6400       926
    22.6600       922
    22.6800       936
    22.7000       930
    22.7200       882
    22.7400       832
    22.7600       846
    22.7800       818
    22.8000       802
    22.8200       796
    22.8400       738
    22.8600       766
    22.8800       778
    22.9000       728
    22.9200       708
    22.9400       736
    22.9600       634
    22.9800       696
    23.0000       634
    23.0200       628
    23.0400       654
    23.0600       670
    23.0800       604
    23.1000       574
    23.1200       620
    23.1400       564
    23.1600       572
    23.1800       532
    23.2000       514
    23.2200       518
    23.2400       520
    23.2600       486
    23.2800       460
    23.3000       442
    23.3200       446
    23.3400       464
    23.3600       502
    23.3800       444
    23.4000       460
    23.4200       414
    23.4400       422
    23.4600       444
    23.4800       414
    23.5000       428
    23.5200       380
    23.5400       404
    23.5600       378
    23.5800       342
    23.6000       358
    23.6200       376
    23.6400       338
    23.6600       342
    23.6800       386
    23.7000       362
    23.7200       324
    23.7400       346
    23.7600       336
    23.7800       314
    23.8000       348
    23.8200       328
    23.8400       340
    23.8600       260
    23.8800       312
    23.9000       294
    23.9200       300
    23.9400       272
    23.9600       314
    23.9800       246
    24.0000       260
    24.0200       262
    24.0400       256
    24.0600       278
    24.0800       272
    24.1000       272
    24.1200       258
    24.1400       254
    24.1600       232
    24.1800       244
    24.2000       244
    24.2200       248
    24.2400       240
    24.2600       250
    24.2800       246
    24.3000       234
    24.3200       236
    24.3400       236
    24.3600       244
    24.3800       222
    24.4000       242
    24.4200       228
    24.4400       234
    24.4600       226
    24.4800       230
    24.5000       240
    24.5200       242
    24.5400       224
    24.5600       218
    24.5800       220
    24.6000       214
    24.6200       192
    24.6400       186
    24.6600       194
    24.6800       218
    24.7000       206
    24.7200       176
    24.7400       194
    24.7600       202
    24.7800       182
    24.8000       204
    24.8200       202
    24.8400       218
    24.8600       194
    24.8800       224
    24.9000       192
    24.9200       186
    24.9400       186
    24.9600       186
    24.9800       186
    25.0000       198
    25.0200       188
    25.0400       224
    25.0600       184
    25.0800       214
    25.1000       188
    25.1200       190
    25.1400       180
    25.1600       192
    25.1800       202
    25.2000       172
    25.2200       178
    25.2400       188
    25.2600       176
    25.2800       174
    25.3000       174
    25.3200       190
    25.3400       166
    25.3600       168
    25.3800       176
    25.4000       178
    25.4200       178
    25.4400       150
    25.4600       190
    25.4800       198
    25.5000       172
    25.5200       162
    25.5400       158
    25.5600       166
    25.5800       176
    25.6000       174
    25.6200       162
    25.6400       166
    25.6600       170
    25.6800       186
    25.7000       160
    25.7200       190
    25.7400       176
    25.7600       140
    25.7800       166
    25.8000       154
    25.8200       172
    25.8400       168
    25.8600       144
    25.8800       164
    25.9000       186
    25.9200       160
    25.9400       156
    25.9600       172
    25.9800       150
    26.0000       158
    26.0200       166
    26.0400       148
    26.0600       158
    26.0800       168
    26.1000       128
    26.1200       148
    26.1400       146
    26.1600       164
    26.1800       162
    26.2000       166
    26.2200       142
    26.2400       140
    26.2600       168
    26.2800       176
    26.3000       168
    26.3200       170
    26.3400       162
    26.3600       160
    26.3800       160
    26.4000       148
    26.4200       148
    26.4400       148
    26.4600       152
    26.4800       140
    26.5000       146
    26.5200       148
    26.5400       136
    26.5600       154
    26.5800       138
    26.6000       160
    26.6200       142
    26.6400       146
    26.6600       148
    26.6800       168
    26.7000       156
    26.7200       168
    26.7400       150
    26.7600       146
    26.7800       164
    26.8000       144
    26.8200       142
    26.8400       154
    26.8600       156
    26.8800       142
    26.9000       150
    26.9200       140
    26.9400       150
    26.9600       166
    26.9800       156
    27.0000       134
    27.0200       140
    27.0400       172
    27.0600       152
    27.0800       154
    27.1000       146
    27.1200       150
    27.1400       146
    27.1600       168
    27.1800       142
    27.2000       162
    27.2200       186
    27.2400       154
    27.2600       142
    27.2800       134
    27.3000       156
    27.3200       168
    27.3400       148
    27.3600       166
    27.3800       152
    27.4000       146
    27.4200       168
    27.4400       148
    27.4600       168
    27.4800       124
    27.5000       138
    27.5200       164
    27.5400       168
    27.5600       158
    27.5800       170
    27.6000       194
    27.6200       168
    27.6400       150
    27.6600       156
    27.6800       166
    27.7000       162
    27.7200       166
    27.7400       152
    27.7600       150
    27.7800       168
    27.8000       154
    27.8200       170
    27.8400       180
    27.8600       182
    27.8800       146
    27.9000       162
    27.9200       176
    27.9400       162
    27.9600       158
    27.9800       164
    28.0000       166
    28.0200       132
    28.0400       162
    28.0600       146
    28.0800       132
    28.1000       160
    28.1200       152
    28.1400       122
    28.1600       158
    28.1800       150
    28.2000       132
    28.2200       156
    28.2400       166
    28.2600       172
    28.2800       168
    28.3000       156
    28.3200       150
    28.3400       180
    28.3600       166
    28.3800       174
    28.4000       164
    28.4200       170
    28.4400       146
    28.4600       164
    28.4800       150
    28.5000       168
    28.5200       158
    28.5400       148
    28.5600       166
    28.5800       136
    28.6000       140
    28.6200       166
    28.6400       174
    28.6600       140
    28.6800       170
    28.7000       130
    28.7200       150
    28.7400       162
    28.7600       152
    28.7800       168
    28.8000       160
    28.8200       160
    28.8400       158
    28.8600       134
    28.8800       178
    28.9000       154
    28.9200       152
    28.9400       180
    28.9600       146
    28.9800       168
    29.0000       156
    29.0200       132
    29.0400       170
    29.0600       166
    29.0800       136
    29.1000       144
    29.1200       156
    29.1400       178
    29.1600       174
    29.1800       174
    29.2000       164
    29.2200       134
    29.2400       166
    29.2600       158
    29.2800       158
    29.3000       172
    29.3200       152
    29.3400       142
    29.3600       144
    29.3800       154
    29.4000       148
    29.4200       148
    29.4400       134
    29.4600       152
    29.4800       142
    29.5000       168
    29.5200       140
    29.5400       160
    29.5600       148
    29.5800       182
    29.6000       160
    29.6200       152
    29.6400       152
    29.6600       152
    29.6800       142
    29.7000       154
    29.7200       148
    29.7400       160
    29.7600       180
    29.7800       142
    29.8000       140
    29.8200       126
    29.8400       152
    29.8600       162
    29.8800       164
    29.9000       146
    29.9200       146
    29.9400       142
    29.9600       142
    29.9800       168
    30.0000       146
    30.0200       114
    30.0400       154
    30.0600       152
    30.0800       154
    30.1000       132
    30.1200       146
    30.1400       158
    30.1600       142
    30.1800       150
    30.2000       166
    30.2200       132
    30.2400       156
    30.2600       120
    30.2800       158
    30.3000       158
    30.3200       138
    30.3400       150
    30.3600       144
    30.3800       150
    30.4000       120
    30.4200       136
    30.4400       148
    30.4600       148
    30.4800       154
    30.5000       150
    30.5200       136
    30.5400       134
    30.5600       122
    30.5800       148
    30.6000       160
    30.6200       144
    30.6400       142
    30.6600       152
    30.6800       146
    30.7000       128
    30.7200       132
    30.7400       128
    30.7600       152
    30.7800       146
    30.8000       166
    30.8200       146
    30.8400       156
    30.8600       142
    30.8800       136
    30.9000       140
    30.9200       148
    30.9400       136
    30.9600       156
    30.9800       122
    31.0000       132
    31.0200       132
    31.0400       144
    31.0600       124
    31.0800       142
    31.1000       152
    31.1200       136
    31.1400       124
    31.1600       134
    31.1800       108
    31.2000       132
    31.2200       124
    31.2400       134
    31.2600       116
    31.2800       138
    31.3000       118
    31.3200       110
    31.3400       136
    31.3600       112
    31.3800       126
    31.4000       110
    31.4200       128
    31.4400       116
    31.4600       138
    31.4800       142
    31.5000       110
    31.5200       132
    31.5400       140
    31.5600       132
    31.5800       130
    31.6000       126
    31.6200       144
    31.6400       122
    31.6600       118
    31.6800       124
    31.7000       112
    31.7200       116
    31.7400       126
    31.7600       138
    31.7800       126
    31.8000       150
    31.8200       132
    31.8400       130
    31.8600       116
    31.8800       146
    31.9000       116
    31.9200       108
    31.9400       112
    31.9600       118
    31.9800       128
    32.0000       116
    32.0200       120
    32.0400       126
    32.0600       122
    32.0800       116
    32.1000       128
    32.1200       116
    32.1400       142
    32.1600       138
    32.1800       132
    32.2000       116
    32.2200       120
    32.2400       148
    32.2600       136
    32.2800       122
    32.3000       122
    32.3200       110
    32.3400       136
    32.3600       132
    32.3800       120
    32.4000       122
    32.4200       122
    32.4400       118
    32.4600       142
    32.4800       120
    32.5000       134
    32.5200       138
    32.5400       134
    32.5600       118
    32.5800       130
    32.6000       112
    32.6200       116
    32.6400       134
    32.6600       138
    32.6800       126
    32.7000       134
    32.7200       148
    32.7400       130
    32.7600       140
    32.7800       164
    32.8000       144
    32.8200       154
    32.8400       158
    32.8600       128
    32.8800       124
    32.9000       148
    32.9200       154
    32.9400       156
    32.9600       150
    32.9800       156
    33.0000       148
    33.0200       154
    33.0400       150
    33.0600       162
    33.0800       158
    33.1000       146
    33.1200       168
    33.1400       172
    33.1600       160
    33.1800       146
    33.2000       182
    33.2200       158
    33.2400       172
    33.2600       172
    33.2800       138
    33.3000       186
    33.3200       166
    33.3400       162
    33.3600       170
    33.3800       168
    33.4000       174
    33.4200       170
    33.4400       160
    33.4600       198
    33.4800       178
    33.5000       164
    33.5200       168
    33.5400       160
    33.5600       186
    33.5800       180
    33.6000       176
    33.6200       172
    33.6400       178
    33.6600       206
    33.6800       170
    33.7000       176
    33.7200       192
    33.7400       160
    33.7600       200
    33.7800       224
    33.8000       218
    33.8200       212
    33.8400       212
    33.8600       216
    33.8800       202
    33.9000       218
    33.9200       208
    33.9400       212
    33.9600       202
    33.9800       198
    34.0000       214
    34.0200       196
    34.0400       246
    34.0600       210
    34.0800       206
    34.1000       216
    34.1200       228
    34.1400       204
    34.1600       236
    34.1800       236
    34.2000       248
    34.2200       246
    34.2400       218
    34.2600       268
    34.2800       254
    34.3000       228
    34.3200       252
    34.3400       252
    34.3600       222
    34.3800       266
    34.4000       286
    34.4200       218
    34.4400       204
    34.4600       238
    34.4800       198
    34.5000       204
    34.5200       222
    34.5400       216
    34.5600       206
    34.5800       222
    34.6000       216
    34.6200       202
    34.6400       206
    34.6600       190
    34.6800       186
    34.7000       198
    34.7200       188
    34.7400       162
    34.7600       188
    34.7800       210
    34.8000       186
    34.8200       194
    34.8400       164
    34.8600       154
    34.8800       204
    34.9000       172
    34.9200       146
    34.9400       180
    34.9600       174
    34.9800       164
    35.0000       174
    35.0200       192
    35.0400       172
    35.0600       170
    35.0800       164
    35.1000       158
    35.1200       156
    35.1400       132
    35.1600       148
    35.1800       178
    35.2000       186
    35.2200       130
    35.2400       152
    35.2600       134
    35.2800       150
    35.3000       148
    35.3200       152
    35.3400       144
    35.3600       138
    35.3800       180
    35.4000       126
    35.4200       126
    35.4400       166
    35.4600       154
    35.4800       166
    35.5000       160
    35.5200       144
    35.5400       160
    35.5600       134
    35.5800       154
    35.6000       160
    35.6200       148
    35.6400       152
    35.6600       142
    35.6800       168
    35.7000       144
    35.7200       142
    35.7400       142
    35.7600       134
    35.7800       164
    35.8000       156
    35.8200       150
    35.8400       144
    35.8600       160
    35.8800       132
    35.9000       140
    35.9200       162
    35.9400       130
    35.9600       116
    35.9800       136
    36.0000       144
    36.0200       142
    36.0400       126
    36.0600       148
    36.0800       132
    36.1000       146
    36.1200       120
    36.1400       124
    36.1600       118
    36.1800       170
    36.2000       136
    36.2200       144
    36.2400       142
    36.2600       132
    36.2800       122
    36.3000       148
    36.3200       124
    36.3400       120
    36.3600       148
    36.3800       152
    36.4000       156
    36.4200       130
    36.4400       128
    36.4600       124
    36.4800       148
    36.5000       132
    36.5200       142
    36.5400       118
    36.5600       136
    36.5800       138
    36.6000       136
    36.6200       136
    36.6400       134
    36.6600       128
    36.6800       118
    36.7000       126
    36.7200       142
    36.7400       126
    36.7600       130
    36.7800       154
    36.8000       122
    36.8200       116
    36.8400       148
    36.8600       144
    36.8800       130
    36.9000       134
    36.9200       148
    36.9400       124
    36.9600       140
    36.9800       122
    37.0000       138
    37.0200       128
    37.0400       148
    37.0600       140
    37.0800       128
    37.1000       124
    37.1200       124
    37.1400       144
    37.1600       124
    37.1800       126
    37.2000       140
    37.2200       150
    37.2400       146
    37.2600       136
    37.2800       136
    37.3000       132
    37.3200       164
    37.3400       118
    37.3600       146
    37.3800       126
    37.4000       128
    37.4200       132
    37.4400       138
    37.4600       144
    37.4800       132
    37.5000       136
    37.5200       126
    37.5400       136
    37.5600       136
    37.5800       132
    37.6000       134
    37.6200       158
    37.6400       132
    37.6600       152
    37.6800       164
    37.7000       178
    37.7200       174
    37.7400       176
    37.7600       206
    37.7800       220
    37.8000       198
    37.8200       214
    37.8400       196
    37.8600       192
    37.8800       188
    37.9000       188
    37.9200       156
    37.9400       142
    37.9600       152
    37.9800       146
    38.0000       146
    38.0200       152
    38.0400       142
    38.0600       136
    38.0800       140
    38.1000       118
    38.1200       110
    38.1400       146
    38.1600       132
    38.1800       104
    38.2000       158
    38.2200       116
    38.2400       140
    38.2600       124
    38.2800       120
    38.3000       128
    38.3200       146
    38.3400       160
    38.3600       134
    38.3800       136
    38.4000       152
    38.4200       124
    38.4400       156
    38.4600       150
    38.4800       140
    38.5000       140
    38.5200       130
    38.5400       132
    38.5600       110
    38.5800       132
    38.6000       136
    38.6200       124
    38.6400       132
    38.6600       124
    38.6800       144
    38.7000       134
    38.7200       108
    38.7400       134
    38.7600       120
    38.7800       128
    38.8000       134
    38.8200       134
    38.8400       104
    38.8600       144
    38.8800       108
    38.9000        98
    38.9200       142
    38.9400       136
    38.9600       120
    38.9800       114
    39.0000       106
    39.0200       120
    39.0400       130
    39.0600       118
    39.0800       146
    39.1000       126
    39.1200       134
    39.1400       124
    39.1600       104
    39.1800       124
    39.2000       144
    39.2200       126
    39.2400       118
    39.2600       102
    39.2800       136
    39.3000       126
    39.3200       128
    39.3400       130
    39.3600       106
    39.3800       130
    39.4000       122
    39.4200       114
    39.4400       126
    39.4600       130
    39.4800       114
    39.5000       136
    39.5200       112
    39.5400       126
    39.5600       114
    39.5800       124
    39.6000       110
    39.6200       114
    39.6400       142
    39.6600       114
    39.6800       148
    39.7000       108
    39.7200       106
    39.7400       116
    39.7600       118
    39.7800       108
    39.8000       100
    39.8200       114
    39.8400       108
    39.8600       134
    39.8800       132
    39.9000       110
    39.9200       106
    39.9400       118
    39.9600       114
    39.9800       112
    40.0000       130
    40.0200       120
    40.0400       120
    40.0600       142
    40.0800       132
    40.1000       112
    40.1200       118
    40.1400       122
    40.1600       118
    40.1800       128
    40.2000       104
    40.2200       108
    40.2400       116
    40.2600       136
    40.2800       120
    40.3000       122
    40.3200       112
    40.3400       122
    40.3600       138
    40.3800       116
    40.4000       120
    40.4200       110
    40.4400       116
    40.4600       108
    40.4800       108
    40.5000       124
    40.5200       110
    40.5400       112
    40.5600       108
    40.5800       118
    40.6000       108
    40.6200       120
    40.6400       128
    40.6600       128
    40.6800       114
    40.7000       108
    40.7200       126
    40.7400       110
    40.7600       112
    40.7800       124
    40.8000       130
    40.8200       106
    40.8400       126
    40.8600       112
    40.8800       108
    40.9000        94
    40.9200       126
    40.9400       134
    40.9600       106
    40.9800       112
    41.0000       134
    41.0200       128
    41.0400       116
    41.0600       132
    41.0800       120
    41.1000       124
    41.1200       126
    41.1400       118
    41.1600       128
    41.1800       146
    41.2000       120
    41.2200       124
    41.2400       116
    41.2600       104
    41.2800       116
    41.3000       128
    41.3200       124
    41.3400       120
    41.3600       126
    41.3800       114
    41.4000       132
    41.4200       144
    41.4400       122
    41.4600       134
    41.4800       130
    41.5000       116
    41.5200       128
    41.5400       126
    41.5600       126
    41.5800       124
    41.6000       126
    41.6200       118
    41.6400       150
    41.6600       134
    41.6800       134
    41.7000       128
    41.7200       136
    41.7400       152
    41.7600       126
    41.7800       142
    41.8000       130
    41.8200       122
    41.8400       148
    41.8600       134
    41.8800       114
    41.9000       124
    41.9200       116
    41.9400       140
    41.9600       128
    41.9800       160
    42.0000       118
    42.0200       144
    42.0400       120
    42.0600       134
    42.0800       136
    42.1000       132
    42.1200       122
    42.1400       106
    42.1600       140
    42.1800       136
    42.2000       132
    42.2200       124
    42.2400       114
    42.2600       110
    42.2800       102
    42.3000       136
    42.3200       112
    42.3400       122
    42.3600       126
    42.3800       124
    42.4000       116
    42.4200       118
    42.4400       110
    42.4600       130
    42.4800       118
    42.5000       108
    42.5200       130
    42.5400       130
    42.5600       126
    42.5800        96
    42.6000       128
    42.6200       126
    42.6400       126
    42.6600       106
    42.6800        98
    42.7000       108
    42.7200       104
    42.7400       120
    42.7600       112
    42.7800       118
    42.8000       100
    42.8200       106
    42.8400       118
    42.8600       104
    42.8800       116
    42.9000       124
    42.9200       102
    42.9400       124
    42.9600       128
    42.9800       128
    43.0000       112
    43.0200       118
    43.0400       128
    43.0600       134
    43.0800       132
    43.1000       106
    43.1200       110
    43.1400       114
    43.1600       120
    43.1800       112
    43.2000       116
    43.2200       130
    43.2400       102
    43.2600       100
    43.2800       118
    43.3000       114
    43.3200       104
    43.3400       142
    43.3600       120
    43.3800       126
    43.4000       114
    43.4200       118
    43.4400       126
    43.4600       108
    43.4800       114
    43.5000       120
    43.5200       120
    43.5400       126
    43.5600       128
    43.5800       140
    43.6000       144
    43.6200       132
    43.6400       138
    43.6600       182
    43.6800       166
    43.7000       178
    43.7200       198
    43.7400       190
    43.7600       216
    43.7800       260
    43.8000       238
    43.8200       290
    43.8400       332
    43.8600       380
    43.8800       480
    43.9000       676
    43.9200       828
    43.9400      1162
    43.9600      1556
    43.9800      1992
    44.0000      2340
    44.0200      2488
    44.0400      2406
    44.0600      2170
    44.0800      1822
    44.1000      1564
    44.1200      1402
    44.1400      1364
    44.1600      1170
    44.1800       828
    44.2000       680
    44.2200       438
    44.2400       354
    44.2600       262
    44.2800       230
    44.3000       192
    44.3200       182
    44.3400       176
    44.3600       142
    44.3800       136
    44.4000       146
    44.4200       156
    44.4400       146
    44.4600       146
    44.4800       112
    44.5000       138
    44.5200       124
    44.5400       118
    44.5600       122
    44.5800       128
    44.6000       114
    44.6200       114
    44.6400       116
    44.6600       118
    44.6800       150
    44.7000       112
    44.7200       134
    44.7400       114
    44.7600       136
    44.7800       124
    44.8000       130
    44.8200       132
    44.8400       124
    44.8600       120
    44.8800       100
    44.9000       112
    44.9200       124
    44.9400       104
    44.9600       106
    44.9800       118
    45.0000       112
    45.0200       102
    45.0400       118
    45.0600       122
    45.0800       104
    45.1000       132
    45.1200       112
    45.1400       118
    45.1600       112
    45.1800       110
    45.2000       102
    45.2200       126
    45.2400       110
    45.2600       102
    45.2800       106
    45.3000       106
    45.3200       118
    45.3400       106
    45.3600       110
    45.3800       106
    45.4000       140
    45.4200       112
    45.4400       118
    45.4600       128
    45.4800       102
    45.5000       122
    45.5200       108
    45.5400       102
    45.5600       106
    45.5800        94
    45.6000       128
    45.6200       110
    45.6400       112
    45.6600       110
    45.6800       108
    45.7000       110
    45.7200        96
    45.7400       108
    45.7600       104
    45.7800       124
    45.8000        98
    45.8200        96
    45.8400        98
    45.8600       108
    45.8800        96
    45.9000       110
    45.9200       112
    45.9400        98
    45.9600        88
    45.9800       106
    46.0000        96
    46.0200        90
    46.0400       112
    46.0600       100
    46.0800       100
    46.1000       104
    46.1200        98
    46.1400        86
    46.1600       108
    46.1800       106
    46.2000       116
    46.2200       124
    46.2400       112
    46.2600       114
    46.2800       100
    46.3000       102
    46.3200       100
    46.3400        88
    46.3600        96
    46.3800        92
    46.4000        92
    46.4200       104
    46.4400        96
    46.4600       112
    46.4800       112
    46.5000       102
    46.5200       120
    46.5400       116
    46.5600        96
    46.5800       100
    46.6000       104
    46.6200       106
    46.6400        88
    46.6600        70
    46.6800        88
    46.7000        92
    46.7200        94
    46.7400        98
    46.7600        94
    46.7800       110
    46.8000        96
    46.8200        94
    46.8400        84
    46.8600       116
    46.8800       106
    46.9000       100
    46.9200       110
    46.9400       108
    46.9600        98
    46.9800       100
    47.0000        98
    47.0200       100
    47.0400       108
    47.0600        94
    47.0800       100
    47.1000        74
    47.1200       100
    47.1400       110
    47.1600        94
    47.1800       104
    47.2000       112
    47.2200       106
    47.2400        88
    47.2600        84
    47.2800        78
    47.3000        98
    47.3200       104
    47.3400       114
    47.3600       102
    47.3800        82
    47.4000        82
    47.4200        94
    47.4400       108
    47.4600        92
    47.4800        86
    47.5000        88
    47.5200        96
    47.5400        82
    47.5600        92
    47.5800        96
    47.6000        90
    47.6200       100
    47.6400        84
    47.6600        92
    47.6800       100
    47.7000        80
    47.7200        88
    47.7400       108
    47.7600        86
    47.7800        86
    47.8000        94
    47.8200        94
    47.8400        92
    47.8600        74
    47.8800       100
    47.9000       106
    47.9200       100
    47.9400        96
    47.9600        96
    47.9800        90
    48.0000        86
    48.0200        94
    48.0400        94
    48.0600        98
    48.0800       112
    48.1000        84
    48.1200        78
    48.1400       108
    48.1600        90
    48.1800       102
    48.2000        72
    48.2200        92
    48.2400        90
    48.2600        94
    48.2800        96
    48.3000        76
    48.3200        92
    48.3400        78
    48.3600       114
    48.3800        98
    48.4000        76
    48.4200        84
    48.4400        82
    48.4600        84
    48.4800        92
    48.5000        96
    48.5200        76
    48.5400        94
    48.5600        86
    48.5800        92
    48.6000        82
    48.6200        96
    48.6400        70
    48.6600        76
    48.6800        82
    48.7000        82
    48.7200        70
    48.7400        96
    48.7600        98
    48.7800        86
    48.8000       110
    48.8200        88
    48.8400        84
    48.8600        82
    48.8800        74
    48.9000        86
    48.9200        82
    48.9400        78
    48.9600        90
    48.9800        76
    49.0000        84
    49.0200        68
    49.0400        82
    49.0600        80
    49.0800        88
    49.1000        70
    49.1200        74
    49.1400        80
    49.1600        82
    49.1800       104
    49.2000        92
    49.2200        96
    49.2400        80
    49.2600        80
    49.2800        88
    49.3000        66
    49.3200        82
    49.3400        92
    49.3600        68
    49.3800        92
    49.4000        84
    49.4200        70
    49.4400        80
    49.4600        60
    49.4800        80
    49.5000        84
    49.5200        94
    49.5400        94
    49.5600        70
    49.5800        76
    49.6000        70
    49.6200        56
    49.6400        70
    49.6600        68
    49.6800        96
    49.7000        66
    49.7200        78
    49.7400        58
    49.7600        74
    49.7800        76
    49.8000        70
    49.8200        78
    49.8400        86
    49.8600        80
    49.8800        70
    49.9000       104
    49.9200        90
    49.9400        84
    49.9600        90
    49.9800        66
    50.0000        68
    50.0200        60
    50.0400        78
    50.0600        82
    50.0800        80
    50.1000        80
    50.1200        74
    50.1400        74
    50.1600        70
    50.1800        76
    50.2000        84
    50.2200        64
    50.2400        78
    50.2600        88
    50.2800        68
    50.3000        64
    50.3200        64
    50.3400        66
    50.3600        76
    50.3800        74
    50.4000        70
    50.4200        74
    50.4400        84
    50.4600        70
    50.4800        66
    50.5000        72
    50.5200        70
    50.5400        60
    50.5600        72
    50.5800        70
    50.6000        84
    50.6200        70
    50.6400        70
    50.6600        58
    50.6800        62
    50.7000        70
    50.7200        60
    50.7400        70
    50.7600        80
    50.7800        72
    50.8000        76
    50.8200        54
    50.8400        72
    50.8600        62
    50.8800        94
    50.9000        74
    50.9200        78
    50.9400        66
    50.9600        84
    50.9800        76
    51.0000        62
    51.0200        82
    51.0400        84
    51.0600        58
    51.0800        66
    51.1000        74
    51.1200        64
    51.1400        86
    51.1600        78
    51.1800        66
    51.2000        62
    51.2200        66
    51.2400        62
    51.2600        72
    51.2800        74
    51.3000        84
    51.3200        60
    51.3400        74
    51.3600        56
    51.3800        80
    51.4000        66
    51.4200        68
    51.4400        78
    51.4600        54
    51.4800        52
    51.5000        60
    51.5200        68
    51.5400        64
    51.5600        76
    51.5800        64
    51.6000        58
    51.6200        74
    51.6400        60
    51.6600        62
    51.6800        76
    51.7000        66
    51.7200        62
    51.7400        68
    51.7600        78
    51.7800        76
    51.8000        52
    51.8200        62
    51.8400        76
    51.8600        62
    51.8800        66
    51.9000        72
    51.9200        64
    51.9400        66
    51.9600        52
    51.9800        66
    52.0000        58
    52.0200        40
    52.0400        62
    52.0600        52
    52.0800        60
    52.1000        52
    52.1200        74
    52.1400        68
    52.1600        54
    52.1800        66
    52.2000        56
    52.2200        58
    52.2400        68
    52.2600        50
    52.2800        62
    52.3000        56
    52.3200        40
    52.3400        56
    52.3600        66
    52.3800        60
    52.4000        74
    52.4200        48
    52.4400        60
    52.4600        58
    52.4800        68
    52.5000        66
    52.5200        64
    52.5400        56
    52.5600        56
    52.5800        64
    52.6000        56
    52.6200        62
    52.6400        58
    52.6600        60
    52.6800        40
    52.7000        54
    52.7200        62
    52.7400        62
    52.7600        64
    52.7800        66
    52.8000        68
    52.8200        58
    52.8400        56
    52.8600        68
    52.8800        66
    52.9000        54
    52.9200        66
    52.9400        64
    52.9600        72
    52.9800        60
    53.0000        74
    53.0200        54
    53.0400        46
    53.0600        68
    53.0800        76
    53.1000        58
    53.1200        74
    53.1400        48
    53.1600        62
    53.1800        58
    53.2000        48
    53.2200        44
    53.2400        62
    53.2600        40
    53.2800        62
    53.3000        56
    53.3200        60
    53.3400        60
    53.3600        58
    53.3800        64
    53.4000        52
    53.4200        60
    53.4400        48
    53.4600        48
    53.4800        56
    53.5000        50
    53.5200        46
    53.5400        56
    53.5600        54
    53.5800        60
    53.6000        66
    53.6200        62
    53.6400        64
    53.6600        52
    53.6800        68
    53.7000        68
    53.7200        54
    53.7400        54
    53.7600        50
    53.7800        64
    53.8000        52
    53.8200        58
    53.8400        58
    53.8600        62
    53.8800        54
    53.9000        64
    53.9200        76
    53.9400        50
    53.9600        58
    53.9800        68
    54.0000        68
    54.0200        42
    54.0400        62
    54.0600        64
    54.0800        58
    54.1000        72
    54.1200        48
    54.1400        60
    54.1600        58
    54.1800        72
    54.2000        42
    54.2200        58
    54.2400        56
    54.2600        60
    54.2800        72
    54.3000        44
    54.3200        68
    54.3400        60
    54.3600        50
    54.3800        60
    54.4000        60
    54.4200        66
    54.4400        42
    54.4600        56
    54.4800        62
    54.5000        62
    54.5200        60
    54.5400        60
    54.5600        56
    54.5800        54
    54.6000        50
    54.6200        64
    54.6400        52
    54.6600        66
    54.6800        44
    54.7000        54
    54.7200        68
    54.7400        54
    54.7600        60
    54.7800        46
    54.8000        52
    54.8200        48
    54.8400        58
    54.8600        38
    54.8800        58
    54.9000        44
    54.9200        66
    54.9400        62
    54.9600        46
    54.9800        60
    55.0000        60
    55.0200        60
    55.0400        56
    55.0600        66
    55.0800        54
    55.1000        50
    55.1200        64
    55.1400        56
    55.1600        54
    55.1800        44
    55.2000        52
    55.2200        46
    55.2400        50
    55.2600        54
    55.2800        62
    55.3000        52
    55.3200        60
    55.3400        74
    55.3600        64
    55.3800        62
    55.4000        48
    55.4200        60
    55.4400        58
    55.4600        46
    55.4800        52
    55.5000        56
    55.5200        62
    55.5400        54
    55.5600        46
    55.5800        62
    55.6000        52
    55.6200        50
    55.6400        62
    55.6600        48
    55.6800        44
    55.7000        50
    55.7200        56
    55.7400        56
    55.7600        62
    55.7800        46
    55.8000        54
    55.8200        52
    55.8400        42
    55.8600        62
    55.8800        58
    55.9000        44
    55.9200        66
    55.9400        52
    55.9600        50
    55.9800        62
    56.0000        64
    56.0200        52
    56.0400        58
    56.0600        40
    56.0800        46
    56.1000        46
    56.1200        52
    56.1400        50
    56.1600        44
    56.1800        46
    56.2000        58
    56.2200        68
    56.2400        46
    56.2600        50
    56.2800        58
    56.3000        54
    56.3200        62
    56.3400        46
    56.3600        40
    56.3800        40
    56.4000        40
    56.4200        50
    56.4400        44
    56.4600        54
    56.4800        56
    56.5000        50
    56.5200        50
    56.5400        70
    56.5600        56
    56.5800        34
    56.6000        46
    56.6200        48
    56.6400        30
    56.6600        56
    56.6800        46
    56.7000        56
    56.7200        46
    56.7400        50
    56.7600        52
    56.7800        52
    56.8000        62
    56.8200        38
    56.8400        56
    56.8600        52
    56.8800        48
    56.9000        40
    56.9200        54
    56.9400        50
    56.9600        56
    56.9800        50
    57.0000        44
    57.0200        48
    57.0400        58
    57.0600        44
    57.0800        48
    57.1000        46
    57.1200        46
    57.1400        50
    57.1600        44
    57.1800        52
    57.2000        50
    57.2200        58
    57.2400        56
    57.2600        48
    57.2800        54
    57.3000        46
    57.3200        48
    57.3400        56
    57.3600        44
    57.3800        42
    57.4000        52
    57.4200        54
    57.4400        48
    57.4600        56
    57.4800        52
    57.5000        52
    57.5200        54
    57.5400        62
    57.5600        56
    57.5800        52
    57.6000        40
    57.6200        52
    57.6400        62
    57.6600        40
    57.6800        64
    57.7000        56
    57.7200        46
    57.7400        50
    57.7600        60
    57.7800        46
    57.8000        42
    57.8200        62
    57.8400        48
    57.8600        56
    57.8800        62
    57.9000        56
    57.9200        54
    57.9400        46
    57.9600        42
    57.9800        48
    58.0000        50
    58.0200        40
    58.0400        50
    58.0600        44
    58.0800        48
    58.1000        56
    58.1200        40
    58.1400        44
    58.1600        48
    58.1800        54
    58.2000        44
    58.2200        38
    58.2400        42
    58.2600        50
    58.2800        58
    58.3000        48
    58.3200        50
    58.3400        48
    58.3600        50
    58.3800        46
    58.4000        50
    58.4200        60
    58.4400        34
    58.4600        46
    58.4800        38
    58.5000        42
    58.5200        36
    58.5400        48
    58.5600        56
    58.5800        64
    58.6000        44
    58.6200        48
    58.6400        40
    58.6600        58
    58.6800        54
    58.7000        46
    58.7200        48
    58.7400        46
    58.7600        48
    58.7800        46
    58.8000        46
    58.8200        40
    58.8400        52
    58.8600        42
    58.8800        58
    58.9000        56
    58.9200        52
    58.9400        50
    58.9600        58
    58.9800        56
    59.0000        54
    59.0200        54
    59.0400        38
    59.0600        42
    59.0800        48
    59.1000        60
    59.1200        54
    59.1400        76
    59.1600        66
    59.1800        54
    59.2000        40
    59.2200        44
    59.2400        50
    59.2600        48
    59.2800        54
    59.3000        40
    59.3200        56
    59.3400        54
    59.3600        42
    59.3800        44
    59.4000        52
    59.4200        38
    59.4400        56
    59.4600        50
    59.4800        48
    59.5000        34
    59.5200        36
    59.5400        46
    59.5600        44
    59.5800        38
    59.6000        40
    59.6200        50
    59.6400        40
    59.6600        42
    59.6800        30
    59.7000        50
    59.7200        54
    59.7400        44
    59.7600        42
    59.7800        52
    59.8000        40
    59.8200        52
    59.8400        44
    59.8600        44
    59.8800        42
    59.9000        44
    59.9200        40
    59.9400        46
    59.9600        52
    59.9800        36
    60.0000        58
    60.0200        56
    60.0400        52
    60.0600        46
    60.0800        42
    60.1000        56
    60.1200        42
    60.1400        38
    60.1600        50
    60.1800        48
    60.2000        38
    60.2200        36
    60.2400        44
    60.2600        52
    60.2800        38
    60.3000        48
    60.3200        54
    60.3400        44
    60.3600        42
    60.3800        48
    60.4000        40
    60.4200        40
    60.4400        44
    60.4600        60
    60.4800        56
    60.5000        36
    60.5200        40
    60.5400        38
    60.5600        40
    60.5800        42
    60.6000        40
    60.6200        42
    60.6400        46
    60.6600        52
    60.6800        44
    60.7000        50
    60.7200        48
    60.7400        54
    60.7600        48
    60.7800        38
    60.8000        54
    60.8200        44
    60.8400        50
    60.8600        34
    60.8800        40
    60.9000        44
    60.9200        46
    60.9400        60
    60.9600        42
    60.9800        34
    61.0000        40
    61.0200        48
    61.0400        54
    61.0600        32
    61.0800        34
    61.1000        46
    61.1200        44
    61.1400        38
    61.1600        48
    61.1800        44
    61.2000        56
    61.2200        44
    61.2400        48
    61.2600        48
    61.2800        48
    61.3000        50
    61.3200        46
    61.3400        48
    61.3600        50
    61.3800        58
    61.4000        48
    61.4200        46
    61.4400        46
    61.4600        36
    61.4800        44
    61.5000        28
    61.5200        38
    61.5400        40
    61.5600        50
    61.5800        28
    61.6000        40
    61.6200        36
    61.6400        56
    61.6600        50
    61.6800        36
    61.7000        38
    61.7200        32
    61.7400        44
    61.7600        44
    61.7800        40
    61.8000        36
    61.8200        38
    61.8400        42
    61.8600        44
    61.8800        34
    61.9000        54
    61.9200        46
    61.9400        66
    61.9600        46
    61.9800        44
    62.0000        48
    62.0200        48
    62.0400        42
    62.0600        30
    62.0800        42
    62.1000        36
    62.1200        56
    62.1400        38
    62.1600        52
    62.1800        26
    62.2000        36
    62.2200        44
    62.2400        46
    62.2600        38
    62.2800        44
    62.3000        48
    62.3200        46
    62.3400        44
    62.3600        54
    62.3800        38
    62.4000        52
    62.4200        48
    62.4400        44
    62.4600        52
    62.4800        54
    62.5000        40
    62.5200        44
    62.5400        46
    62.5600        40
    62.5800        56
    62.6000        34
    62.6200        52
    62.6400        42
    62.6600        46
    62.6800        42
    62.7000        56
    62.7200        46
    62.7400        48
    62.7600        44
    62.7800        40
    62.8000        50
    62.8200        44
    62.8400        38
    62.8600        54
    62.8800        38
    62.9000        52
    62.9200        46
    62.9400        44
    62.9600        44
    62.9800        48
    63.0000        66
    63.0200        46
    63.0400        52
    63.0600        38
    63.0800        44
    63.1000        34
    63.1200        46
    63.1400        46
    63.1600        46
    63.1800        44
    63.2000        54
    63.2200        36
    63.2400        38
    63.2600        48
    63.2800        52
    63.3000        42
    63.3200        38
    63.3400        52
    63.3600        56
    63.3800        44
    63.4000        56
    63.4200        64
    63.4400        62
    63.4600        48
    63.4800        44
    63.5000        54
    63.5200        68
    63.5400        50
    63.5600        50
    63.5800        58
    63.6000        52
    63.6200        62
    63.6400        50
    63.6600        64
    63.6800        44
    63.7000        58
    63.7200        48
    63.7400        44
    63.7600        46
    63.7800        58
    63.8000        56
    63.8200        48
    63.8400        42
    63.8600        50
    63.8800        68
    63.9000        60
    63.9200        64
    63.9400        68
    63.9600        88
    63.9800        64
    64.0000        82
    64.0200        90
    64.0400        94
    64.0600       110
    64.0800       122
    64.1000       108
    64.1200       134
    64.1400       148
    64.1600       158
    64.1800       178
    64.2000       184
    64.2200       246
    64.2400       330
    64.2600       374
    64.2800       496
    64.3000       734
    64.3200       938
    64.3400      1154
    64.3600      1368
    64.3800      1484
    64.4000      1408
    64.4200      1352
    64.4400      1168
    64.4600       954
    64.4800       828
    64.5000       730
    64.5200       726
    64.5400       792
    64.5600       810
    64.5800       782
    64.6000       730
    64.6200       576
    64.6400       460
    64.6600       322
    64.6800       246
    64.7000       178
    64.7200       166
    64.7400       124
    64.7600       112
    64.7800       108
    64.8000       104
    64.8200        80
    64.8400        62
    64.8600        84
    64.8800        72
    64.9000        58
    64.9200        66
    64.9400        64
    64.9600        60
    64.9800        40
    65.0000        50
    65.0200        60
    65.0400        58
    65.0600        58
    65.0800        50
    65.1000        46
    65.1200        42
    65.1400        40
    65.1600        44
    65.1800        54
    65.2000        36
    65.2200        44
    65.2400        54
    65.2600        60
    65.2800        42
    65.3000        46
    65.3200        36
    65.3400        28
    65.3600        50
    65.3800        44
    65.4000        44
    65.4200        44
    65.4400        50
    65.4600        48
    65.4800        46
    65.5000        38
    65.5200        52
    65.5400        36
    65.5600        48
    65.5800        54
    65.6000        40
    65.6200        42
    65.6400        38
    65.6600        38
    65.6800        44
    65.7000        46
    65.7200        48
    65.7400        42
    65.7600        40
    65.7800        32
    65.8000        42
    65.8200        38
    65.8400        36
    65.8600        48
    65.8800        44
    65.9000        38
    65.9200        42
    65.9400        28
    65.9600        44
    65.9800        52
    66.0000        50
    66.0200        34
    66.0400        46
    66.0600        42
    66.0800        38
    66.1000        40
    66.1200        36
    66.1400        36
    66.1600        26
    66.1800        40
    66.2000        34
    66.2200        34
    66.2400        36
    66.2600        42
    66.2800        36
    66.3000        32
    66.3200        44
    66.3400        40
    66.3600        36
    66.3800        40
    66.4000        28
    66.4200        38
    66.4400        36
    66.4600        36
    66.4800        38
    66.5000        36
    66.5200        44
    66.5400        38
    66.5600        40
    66.5800        34
    66.6000        44
    66.6200        46
    66.6400        44
    66.6600        36
    66.6800        52
    66.7000        38
    66.7200        46
    66.7400        36
    66.7600        42
    66.7800        38
    66.8000        42
    66.8200        32
    66.8400        34
    66.8600        36
    66.8800        36
    66.9000        32
    66.9200        32
    66.9400        38
    66.9600        30
    66.9800        40
    67.0000        36
    67.0200        40
    67.0400        36
    67.0600        38
    67.0800        32
    67.1000        38
    67.1200        36
    67.1400        40
    67.1600        40
    67.1800        44
    67.2000        26
    67.2200        32
    67.2400        40
    67.2600        28
    67.2800        46
    67.3000        44
    67.3200        38
    67.3400        42
    67.3600        40
    67.3800        40
    67.4000        36
    67.4200        32
    67.4400        40
    67.4600        32
    67.4800        52
    67.5000        30
    67.5200        42
    67.5400        40
    67.5600        32
    67.5800        34
    67.6000        36
    67.6200        54
    67.6400        40
    67.6600        36
    67.6800        38
    67.7000        46
    67.7200        36
    67.7400        26
    67.7600        40
    67.7800        28
    67.8000        34
    67.8200        44
    67.8400        34
    67.8600        58
    67.8800        26
    67.9000        40
    67.9200        32
    67.9400        32
    67.9600        44
    67.9800        38
    68.0000        34
    68.0200        26
    68.0400        32
    68.0600        36
    68.0800        40
    68.1000        46
    68.1200        34
    68.1400        36
    68.1600        44
    68.1800        24
    68.2000        40
    68.2200        34
    68.2400        36
    68.2600        38
    68.2800        42
    68.3000        30
    68.3200        46
    68.3400        32
    68.3600        40
    68.3800        42
    68.4000        38
    68.4200        34
    68.4400        32
    68.4600        38
    68.4800        36
    68.5000        44
    68.5200        40
    68.5400        46
    68.5600        42
    68.5800        42
    68.6000        40
    68.6200        34
    68.6400        34
    68.6600        38
    68.6800        36
    68.7000        50
    68.7200        38
    68.7400        38
    68.7600        34
    68.7800        40
    68.8000        22
    68.8200        36
    68.8400        52
    68.8600        54
    68.8800        42
    68.9000        44
    68.9200        28
    68.9400        34
    68.9600        28
    68.9800        44
    69.0000        40
    69.0200        40
    69.0400        34
    69.0600        26
    69.0800        34
    69.1000        38
    69.1200        34
    69.1400        40
    69.1600        44
    69.1800        28
    69.2000        40
    69.2200        42
    69.2400        42
    69.2600        44
    69.2800        28
    69.3000        42
    69.3200        44
    69.3400        44
    69.3600        28
    69.3800        40
    69.4000        26
    69.4200        30
    69.4400        34
    69.4600        28
    69.4800        52
    69.5000        40
    69.5200        44
    69.5400        34
    69.5600        34
    69.5800        24
    69.6000        30
    69.6200        38
    69.6400        30
    69.6600        42
    69.6800        32
    69.7000        40
    69.7200        40
    69.7400        34
    69.7600        20
    69.7800        44
    69.8000        36
    69.8200        28
    69.8400        38
    69.8600        36
    69.8800        54
    69.9000        42
    69.9200        32
    69.9400        34
    69.9600        34
    69.9800        32
    70.0000        32
    70.0200        42
    70.0400        30
    70.0600        34
    70.0800        38
    70.1000        34
    70.1200        32
    70.1400        28
    70.1600        28
    70.1800        42
    70.2000        32
    70.2200        44
    70.2400        34
    70.2600        36
    70.2800        34
    70.3000        54
    70.3200        32
    70.3400        38
    70.3600        38
    70.3800        36
    70.4000        36
    70.4200        46
    70.4400        50
    70.4600        36
    70.4800        28
    70.5000        38
    70.5200        46
    70.5400        48
    70.5600        52
    70.5800        34
    70.6000        40
    70.6200        28
    70.6400        50
    70.6600        36
    70.6800        38
    70.7000        26
    70.7200        36
    70.7400        40
    70.7600        42
    70.7800        46
    70.8000        36
    70.8200        46
    70.8400        24
    70.8600        36
    70.8800        40
    70.9000        40
    70.9200        28
    70.9400        42
    70.9600        44
    70.9800        44
    71.0000        48
    71.0200        36
    71.0400        42
    71.0600        32
    71.0800        34
    71.1000        30
    71.1200        38
    71.1400        40
    71.1600        36
    71.1800        36
    71.2000        44
    71.2200        44
    71.2400        28
    71.2600        44
    71.2800        34
    71.3000        36
    71.3200        42
    71.3400        38
    71.3600        36
    71.3800        40
    71.4000        34
    71.4200        54
    71.4400        34
    71.4600        32
    71.4800        36
    71.5000        32
    71.5200        38
    71.5400        44
    71.5600        30
    71.5800        32
    71.6000        38
    71.6200        44
    71.6400        34
    71.6600        34
    71.6800        32
    71.7000        40
    71.7200        34
    71.7400        40
    71.7600        32
    71.7800        38
    71.8000        34
    71.8200        38
    71.8400        22
    71.8600        32
    71.8800        36
    71.9000        34
    71.9200        40
    71.9400        38
    71.9600        26
    71.9800        46
    72.0000        32
    72.0200        42
    72.0400        34
    72.0600        36
    72.0800        38
    72.1000        40
    72.1200        34
    72.1400        44
    72.1600        36
    72.1800        30
    72.2000        34
    72.2200        36
    72.2400        32
    72.2600        38
    72.2800        38
    72.3000        40
    72.3200        22
    72.3400        34
    72.3600        32
    72.3800        34
    72.4000        40
    72.4200        44
    72.4400        28
    72.4600        34
    72.4800        30
    72.5000        34
    72.5200        28
    72.5400        48
    72.5600        32
    72.5800        44
    72.6000        28
    72.6200        38
    72.6400        30
    72.6600        36
    72.6800        40
    72.7000        44
    72.7200        40
    72.7400        38
    72.7600        26
    72.7800        40
    72.8000        32
    72.8200        44
    72.8400        42
    72.8600        32
    72.8800        32
    72.9000        28
    72.9200        42
    72.9400        40
    72.9600        40
    72.9800        30
    73.0000        42
    73.0200        46
    73.0400        46
    73.0600        40
    73.0800        38
    73.1000        36
    73.1200        40
    73.1400        40
    73.1600        32
    73.1800        34
    73.2000        28
    73.2200        36
    73.2400        46
    73.2600        32
    73.2800        40
    73.3000        28
    73.3200        32
    73.3400        26
    73.3600        36
    73.3800        28
    73.4000        38
    73.4200        32
    73.4400        28
    73.4600        42
    73.4800        38
    73.5000        38
    73.5200        28
    73.5400        36
    73.5600        40
    73.5800        28
    73.6000        40
    73.6200        42
    73.6400        52
    73.6600        42
    73.6800        42
    73.7000        38
    73.7200        30
    73.7400        38
    73.7600        42
    73.7800        30
    73.8000        36
    73.8200        48
    73.8400        42
    73.8600        38
    73.8800        36
    73.9000        38
    73.9200        30
    73.9400        46
    73.9600        42
    73.9800        38
    74.0000        34
    74.0200        32
    74.0400        38
    74.0600        32
    74.0800        40
    74.1000        36
    74.1200        46
    74.1400        30
    74.1600        36
    74.1800        28
    74.2000        52
    74.2200        36
    74.2400        46
    74.2600        38
    74.2800        36
    74.3000        40
    74.3200        30
    74.3400        40
    74.3600        42
    74.3800        30
    74.4000        42
    74.4200        42
    74.4400        50
    74.4600        30
    74.4800        38
    74.5000        42
    74.5200        40
    74.5400        60
    74.5600        28
    74.5800        34
    74.6000        46
    74.6200        48
    74.6400        52
    74.6600        32
    74.6800        46
    74.7000        36
    74.7200        38
    74.7400        42
    74.7600        40
    74.7800        38
    74.8000        48
    74.8200        32
    74.8400        28
    74.8600        32
    74.8800        36
    74.9000        50
    74.9200        34
    74.9400        36
    74.9600        40
    74.9800        36
    75.0000        42
    75.0200        44
    75.0400        28
    75.0600        36
    75.0800        26
    75.1000        30
    75.1200        30
    75.1400        48
    75.1600        38
    75.1800        50
    75.2000        34
    75.2200        44
    75.2400        40
    75.2600        32
    75.2800        34
    75.3000        42
    75.3200        32
    75.3400        30
    75.3600        44
    75.3800        44
    75.4000        32
    75.4200        36
    75.4400        32
    75.4600        38
    75.4800        28
    75.5000        44
    75.5200        46
    75.5400        24
    75.5600        38
    75.5800        34
    75.6000        18
    75.6200        26
    75.6400        48
    75.6600        28
    75.6800        38
    75.7000        40
    75.7200        38
    75.7400        30
    75.7600        40
    75.7800        34
    75.8000        46
    75.8200        38
    75.8400        44
    75.8600        44
    75.8800        32
    75.9000        38
    75.9200        50
    75.9400        46
    75.9600        40
    75.9800        32
    76.0000        38
    76.0200        28
    76.0400        34
    76.0600        46
    76.0800        36
    76.1000        36
    76.1200        38
    76.1400        22
    76.1600        30
    76.1800        38
    76.2000        46
    76.2200        48
    76.2400        30
    76.2600        28
    76.2800        44
    76.3000        44
    76.3200        44
    76.3400        42
    76.3600        34
    76.3800        32
    76.4000        46
    76.4200        40
    76.4400        28
    76.4600        42
    76.4800        30
    76.5000        36
    76.5200        40
    76.5400        38
    76.5600        38
    76.5800        30
    76.6000        50
    76.6200        36
    76.6400        28
    76.6600        52
    76.6800        40
    76.7000        38
    76.7200        48
    76.7400        40
    76.7600        36
    76.7800        32
    76.8000        54
    76.8200        50
    76.8400        44
    76.8600        44
    76.8800        38
    76.9000        40
    76.9200        40
    76.9400        54
    76.9600        42
    76.9800        46
    77.0000        48
    77.0200        60
    77.0400        46
    77.0600        52
    77.0800        56
    77.1000        62
    77.1200        56
    77.1400        68
    77.1600        80
    77.1800        68
    77.2000        42
    77.2200        70
    77.2400        72
    77.2600        96
    77.2800       106
    77.3000       108
    77.3200       116
    77.3400       142
    77.3600       186
    77.3800       202
    77.4000       230
    77.4200       312
    77.4400       362
    77.4600       452
    77.4800       482
    77.5000       496
    77.5200       468
    77.5400       434
    77.5600       412
    77.5800       378
    77.6000       340
    77.6200       262
    77.6400       258
    77.6600       260
    77.6800       256
    77.7000       256
    77.7200       282
    77.7400       258
    77.7600       240
    77.7800       220
    77.8000       208
    77.8200       162
    77.8400       142
    77.8600       132
    77.8800       104
    77.9000        84
    77.9200        58
    77.9400        74
    77.9600        62
    77.9800        60
    78.0000        46
    78.0200        30
    78.0400        48
    78.0600        40
    78.0800        50
    78.1000        46
    78.1200        38
    78.1400        38
    78.1600        42
    78.1800        46
    78.2000        42
    78.2200        44
    78.2400        36
    78.2600        38
    78.2800        46
    78.3000        42
    78.3200        22
    78.3400        32
    78.3600        56
    78.3800        30
    78.4000        36
    78.4200        38
    78.4400        32
    78.4600        38
    78.4800        44
    78.5000        26
    78.5200        28
    78.5400        32
    78.5600        20
    78.5800        32
    78.6000        30
    78.6200        42
    78.6400        36
    78.6600        40
    78.6800        34
    78.7000        36
    78.7200        36
    78.7400        30
    78.7600        34
    78.7800        44
    78.8000        30
    78.8200        30
    78.8400        40
    78.8600        34
    78.8800        34
    78.9000        30
    78.9200        32
    78.9400        42
    78.9600        28
    78.9800        38
    79.0000        42
    79.0200        20
    79.0400        38
    79.0600        22
    79.0800        46
    79.1000        42
    79.1200        28
    79.1400        30
    79.1600        36
    79.1800        42
    79.2000        36
    79.2200        34
    79.2400        40
    79.2600        24
    79.2800        30
    79.3000        34
    79.3200        30
    79.3400        34
    79.3600        44
    79.3800        32
    79.4000        32
    79.4200        30
    79.4400        34
    79.4600        32
    79.4800        30
    79.5000        32
    79.5200        38
    79.5400        30
    79.5600        38
    79.5800        20
    79.6000        24
    79.6200        36
    79.6400        40
    79.6600        32
    79.6800        46
    79.7000        30
    79.7200        38
    79.7400        38
    79.7600        30
    79.7800        32
    79.8000        28
    79.8200        36
    79.8400        28
    79.8600        36
    79.8800        26
    79.9000        26
    79.9200        30
    79.9400        34
    79.9600        24
    79.9800        32
    80.0000        26
    80.0200        30
    80.0400        32
    80.0600        38
    80.0800        28
    80.1000        30
    80.1200        32
    80.1400        34
    80.1600        22
    80.1800        44
    80.2000        40
    80.2200        26
    80.2400        36
    80.2600        36
    80.2800        32
    80.3000        36
    80.3200        34
    80.3400        34
    80.3600        30
    80.3800        32
    80.4000        32
    80.4200        40
    80.4400        28
    80.4600        32
    80.4800        30
    80.5000        26
    80.5200        30
    80.5400        30
    80.5600        34
    80.5800        22
    80.6000        24
    80.6200        28
    80.6400        38
    80.6600        32
    80.6800        32
    80.7000        38
    80.7200        32
    80.7400        42
    80.7600        28
    80.7800        22
    80.8000        30
    80.8200        42
    80.8400        32
    80.8600        38
    80.8800        38
    80.9000        34
    80.9200        36
    80.9400        26
    80.9600        36
    80.9800        36
    81.0000        20
    81.0200        26
    81.0400        38
    81.0600        28
    81.0800        38
    81.1000        22
    81.1200        32
    81.1400        26
    81.1600        20
    81.1800        34
    81.2000        34
    81.2200        34
    81.2400        24
    81.2600        32
    81.2800        34
    81.3000        30
    81.3200        30
    81.3400        34
    81.3600        28
    81.3800        34
    81.4000        36
    81.4200        30
    81.4400        28
    81.4600        26
    81.4800        32
    81.5000        26
    81.5200        22
    81.5400        28
    81.5600        22
    81.5800        46
    81.6000        44
    81.6200        38
    81.6400        24
    81.6600        32
    81.6800        30
    81.7000        36
    81.7200        36
    81.7400        38
    81.7600        36
    81.7800        30
    81.8000        32
    81.8200        28
    81.8400        22
    81.8600        30
    81.8800        24
    81.9000        20
    81.9200        36
    81.9400        28
    81.9600        32
    81.9800        32
    82.0000        28
    82.0200        36
    82.0400        28
    82.0600        34
    82.0800        28
    82.1000        32
    82.1200        28
    82.1400        36
    82.1600        30
    82.1800        28
    82.2000        36
    82.2200        28
    82.2400        34
    82.2600        32
    82.2800        32
    82.3000        38
    82.3200        36
    82.3400        34
    82.3600        34
    82.3800        24
    82.4000        30
    82.4200        24
    82.4400        40
    82.4600        32
    82.4800        30
    82.5000        32
    82.5200        22
    82.5400        40
    82.5600        30
    82.5800        26
    82.6000        26
    82.6200        38
    82.6400        30
    82.6600        28
    82.6800        42
    82.7000        26
    82.7200        38
    82.7400        26
    82.7600        42
    82.7800        32
    82.8000        34
    82.8200        28
    82.8400        34
    82.8600        34
    82.8800        34
    82.9000        22
    82.9200        34
    82.9400        28
    82.9600        28
    82.9800        26
    83.0000        28
    83.0200        30
    83.0400        38
    83.0600        22
    83.0800        38
    83.1000        24
    83.1200        42
    83.1400        30
    83.1600        36
    83.1800        36
    83.2000        40
    83.2200        22
    83.2400        36
    83.2600        26
    83.2800        26
    83.3000        26
    83.3200        32
    83.3400        30
    83.3600        30
    83.3800        32
    83.4000        26
    83.4200        30
    83.4400        28
    83.4600        28
    83.4800        20
    83.5000        34
    83.5200        32
    83.5400        26
    83.5600        28
    83.5800        28
    83.6000        22
    83.6200        32
    83.6400        16
    83.6600        24
    83.6800        30
    83.7000        36
    83.7200        24
    83.7400        28
    83.7600        40
    83.7800        18
    83.8000        24
    83.8200        28
    83.8400        26
    83.8600        14
    83.8800        22
    83.9000        24
    83.9200        28
    83.9400        20
    83.9600        34
    83.9800        26
    84.0000        30
    84.0200        32
    84.0400        22
    84.0600        28
    84.0800        14
    84.1000        22
    84.1200        26
    84.1400        16
    84.1600        28
    84.1800        20
    84.2000        18
    84.2200        24
    84.2400        26
    84.2600        22
    84.2800        34
    84.3000        26
    84.3200        28
    84.3400        24
    84.3600        28
    84.3800        22
    84.4000        22
    84.4200        34
    84.4400        22
    84.4600        30
    84.4800        22
    84.5000        26
    84.5200        30
    84.5400        30
    84.5600        26
    84.5800        20
    84.6000        26
    84.6200        34
    84.6400        22
    84.6600        34
    84.6800        22
    84.7000        34
    84.7200        20
    84.7400        16
    84.7600        30
    84.7800        24
    84.8000        24
    84.8200        28
    84.8400        28
    84.8600        34
    84.8800        36
    84.9000        46
    84.9200        26
    84.9400        24
    84.9600        30
    84.9800        22
    85.0000        30
    85.0200        28
    85.0400        20
    85.0600        24
    85.0800        36
    85.1000        30
    85.1200        28
    85.1400        22
    85.1600        30
    85.1800        34
    85.2000        26
    85.2200        30
    85.2400        32
    85.2600        24
    85.2800        30
    85.3000        26
    85.3200        30
    85.3400        26
    85.3600        26
    85.3800        20
    85.4000        32
    85.4200        32
    85.4400        34
    85.4600        20
    85.4800        18
    85.5000        24
    85.5200        32
    85.5400        28
    85.5600        28
    85.5800        20
    85.6000        32
    85.6200        24
    85.6400        20
    85.6600        26
    85.6800        20
    85.7000        36
    85.7200        36
    85.7400        32
    85.7600        26
    85.7800        28
    85.8000        26
    85.8200        32
    85.8400        18
    85.8600        26
    85.8800        24
    85.9000        24
    85.9200        22
    85.9400        26
    85.9600        16
    85.9800        32
    86.0000        32
    86.0200        20
    86.0400        18
    86.0600        34
    86.0800        26
    86.1000        32
    86.1200        24
    86.1400        26
    86.1600        22
    86.1800        26
    86.2000        24
    86.2200        34
    86.2400        32
    86.2600        28
    86.2800        20
    86.3000        22
    86.3200        30
    86.3400        24
    86.3600        34
    86.3800        24
    86.4000        24
    86.4200        24
    86.4400        22
    86.4600        34
    86.4800        26
    86.5000        32
    86.5200        28
    86.5400        16
    86.5600        26
    86.5800        36
    86.6000        22
    86.6200        28
    86.6400        38
    86.6600        28
    86.6800        24
    86.7000        24
    86.7200        32
    86.7400        26
    86.7600        28
    86.7800        18
    86.8000        20
    86.8200        22
    86.8400        30
    86.8600        28
    86.8800        30
    86.9000        24
    86.9200        28
    86.9400        20
    86.9600        26
    86.9800        38
    87.0000        40
    87.0200        18
    87.0400        28
    87.0600        26
    87.0800        26
    87.1000        22
    87.1200        16
    87.1400        28
    87.1600        26
    87.1800        34
    87.2000        28
    87.2200        28
    87.2400        24
    87.2600        24
    87.2800        22
    87.3000        28
    87.3200        24
    87.3400        30
    87.3600        20
    87.3800        32
    87.4000        36
    87.4200        30
    87.4400        22
    87.4600        28
    87.4800        28
    87.5000        26
    87.5200        22
    87.5400        28
    87.5600        26
    87.5800        30
    87.6000        24
    87.6200        34
    87.6400        30
    87.6600        30
    87.6800        28
    87.7000        18
    87.7200        32
    87.7400        32
    87.7600        20
    87.7800        24
    87.8000        22
    87.8200        28
    87.8400        14
    87.8600        22
    87.8800        32
    87.9000        28
    87.9200        24
    87.9400        22
    87.9600        30
    87.9800        24
    88.0000        22
    88.0200        28
    88.0400        30
    88.0600        20
    88.0800        30
    88.1000        26
    88.1200        36
    88.1400        22
    88.1600        32
    88.1800        28
    88.2000        30
    88.2200        30
    88.2400        24
    88.2600        34
    88.2800        28
    88.3000        30
    88.3200        26
    88.3400        24
    88.3600        28
    88.3800        22
    88.4000        24
    88.4200        26
    88.4400        30
    88.4600        36
    88.4800        36
    88.5000        30
    88.5200        22
    88.5400        22
    88.5600        26
    88.5800        22
    88.6000        16
    88.6200        26
    88.6400        18
    88.6600        20
    88.6800        34
    88.7000        26
    88.7200        32
    88.7400        26
    88.7600        38
    88.7800        20
    88.8000        24
    88.8200        28
    88.8400        16
    88.8600        30
    88.8800        42
    88.9000        18
    88.9200        34
    88.9400        30
    88.9600        24
    88.9800        28
    89.0000        28
    89.0200        24
    89.0400        24
    89.0600        24
    89.0800        24
    89.1000        20
    89.1200        26
    89.1400        22
    89.1600        22
    89.1800        36
    89.2000        26
    89.2200        32
    89.2400        28
    89.2600        34
    89.2800        28
    89.3000        24
    89.3200        28
    89.3400        30
    89.3600        28
    89.3800        26
    89.4000        26
    89.4200        30
    89.4400        34
    89.4600        32
    89.4800        38
    89.5000        28
    89.5200        16
    89.5400        22
    89.5600        18
    89.5800        28
    89.6000        22
    89.6200        24
    89.6400        14
    89.6600        24
    89.6800        26
    89.7000        30
    89.7200        22
    89.7400        26
    89.7600        32
    89.7800        26
    89.8000        34
    89.8200        24
    89.8400        22
    89.8600        28
    89.8800        26
    89.9000        30
    89.9200        26
    89.9400        34
    89.9600        30
    89.9800        18
    90.0000        18
    90.0200        26
    90.0400        32
    90.0600        24
    90.0800        32
    90.1000        20
    90.1200        24
    90.1400        32
    90.1600        28
    90.1800        18
    90.2000        20
    90.2200        18
    90.2400        28
    90.2600        30
    90.2800        28
    90.3000        24
    90.3200        24
    90.3400        28
    90.3600        28
    90.3800        14
    90.4000        24
    90.4200        28
    90.4400        30
    90.4600        18
    90.4800        16
    90.5000        28
    90.5200        30
    90.5400        22
    90.5600        22
    90.5800        26
    90.6000        26
    90.6200        24
    90.6400        18
    90.6600        22
    90.6800        26
    90.7000        20
    90.7200        16
    90.7400        22
    90.7600        20
    90.7800        22
    90.8000        28
    90.8200        22
    90.8400        34
    90.8600        28
    90.8800        16
    90.9000        34
    90.9200        20
    90.9400        16
    90.9600        26
    90.9800        22
    91.0000        30
    91.0200        26
    91.0400        20
    91.0600        30
    91.0800        26
    91.1000        26
    91.1200        26
    91.1400        26
    91.1600        26
    91.1800        24
    91.2000        28
    91.2200        20
    91.2400        22
    91.2600        22
    91.2800        22
    91.3000        18
    91.3200        22
    91.3400        24
    91.3600        18
    91.3800        28
    91.4000        28
    91.4200        30
    91.4400        22
    91.4600        34
    91.4800        20
    91.5000        22
    91.5200        22
    91.5400        20
    91.5600        28
    91.5800        30
    91.6000        38
    91.6200        24
    91.6400        26
    91.6600        18
    91.6800        10
    91.7000        34
    91.7200        30
    91.7400        14
    91.7600        24
    91.7800        24
    91.8000        14
    91.8200        20
    91.8400        18
    91.8600        28
    91.8800        26
    91.9000        20
    91.9200        30
    91.9400        20
    91.9600        16
    91.9800        30
    92.0000        28
    92.0200        24
    92.0400        24
    92.0600        24
    92.0800        30
    92.1000        24
    92.1200        32
    92.1400        32
    92.1600        28
    92.1800        26
    92.2000        28
    92.2200        22
    92.2400        24
    92.2600        22
    92.2800        28
    92.3000        20
    92.3200        16
    92.3400        26
    92.3600        18
    92.3800        26
    92.4000        26
    92.4200        30
    92.4400        24
    92.4600        26
    92.4800        24
    92.5000        16
    92.5200        22
    92.5400        18
    92.5600        20
    92.5800        22
    92.6000        24
    92.6200        16
    92.6400        24
    92.6600        22
    92.6800        16
    92.7000        20
    92.7200        28
    92.7400        28
    92.7600        16
    92.7800        30
    92.8000        24
    92.8200        24
    92.8400        24
    92.8600        34
    92.8800        20
    92.9000        24
    92.9200        18
    92.9400        20
    92.9600        22
    92.9800        36
    93.0000        30
    93.0200        18
    93.0400        24
    93.0600        20
    93.0800        20
    93.1000        26
    93.1200        22
    93.1400        22
    93.1600        26
    93.1800        16
    93.2000        34
    93.2200        20
    93.2400        24
    93.2600        26
    93.2800        22
    93.3000        24
    93.3200        28
    93.3400        22
    93.3600        28
    93.3800        20
    93.4000        20
    93.4200        26
    93.4400        34
    93.4600        36
    93.4800        22
    93.5000        18
    93.5200        24
    93.5400        26
    93.5600        14
    93.5800        32
    93.6000        24
    93.6200        24
    93.6400        36
    93.6600        24
    93.6800        20
    93.7000        14
    93.7200        22
    93.7400        26
    93.7600        22
    93.7800        16
    93.8000        20
    93.8200        26
    93.8400        26
    93.8600        12
    93.8800        20
    93.9000        16
    93.9200        26
    93.9400        22
    93.9600        12
    93.9800        24
    94.0000        20
    94.0200        24
    94.0400        32
    94.0600        18
    94.0800        22
    94.1000        18
    94.1200        20
    94.1400        18
    94.1600        22
    94.1800        20
    94.2000        28
    94.2200        20
    94.2400        30
    94.2600        18
    94.2800        24
    94.3000        38
    94.3200        18
    94.3400        20
    94.3600        18
    94.3800        18
    94.4000        26
    94.4200        20
    94.4400        18
    94.4600        18
    94.4800        24
    94.5000        32
    94.5200        30
    94.5400        20
    94.5600        36
    94.5800        24
    94.6000        24
    94.6200        26
    94.6400        26
    94.6600        24
    94.6800        24
    94.7000        20
    94.7200        24
    94.7400        26
    94.7600        12
    94.7800        36
    94.8000        20
    94.8200        24
    94.8400        28
    94.8600        34
    94.8800        20
    94.9000        16
    94.9200        20
    94.9400        22
    94.9600        34
    94.9800        24
    95.0000        30
